File: TestData3.txt
82(new)

Device		5			Channel		2
Start Test Time		2018.02.15 12:47:33			End Test Time

Unit scheme
Cur	Vol	Cap	CmpCap	Energy	CmpEng	IR	Temperature	Time
mA	mV	mAh	mAh/g	mWh	mWh/g	mO	?	AUTO

Test Information
Start Step		1	Upper-limit Voltage		-	Battery Batch-number
Cycle counts			Lower-limit Voltage		-	Creator
Record Qualification		5sec / 0.0mA / 0.0mV	Upper-limit Current		-	Remark Information
Voltage Measuring-range		5V	Lower-limit Current		-	Upper-limit temperature		-
Current Constant		+10/-10mA

Step setting scheme
StepNum	StepType	Time(mm:ss)	Vol(V)	Cur(mA)	Cap(mAh)	—?V(mV)	Power(mW)	Load(mO)	Current_Over(mA)
1	CC_Chg		4.2000	1.395
2	CV_Chg		4.2000	0.186
3	Rest	30:00
4	CC_DChg		2.7000	1.395
5	Rest	30:00
6	Cycle	Start Step: 1	Cycle Total: 500
7	Stop

Cycle Data
Cycle ID	Cap_Chg	Cap_DChg	RCap_Chg	RCap_DChg	Efficiency	Engy_Chg	Engy_DChg
1	1.974	1.955	127.379	126.125	99.01	7.803	7.258
2	1.957	1.951	126.239	125.895	99.73	7.743	7.240
3	1.950	1.945	125.811	125.511	99.76	7.722	7.214
4	1.945	1.940	125.494	125.190	99.76	7.706	7.194
5	1.940	1.936	125.158	124.888	99.78	7.689	7.174
6	1.938	1.936	125.032	124.879	99.88	7.680	7.182
7	1.935	1.932	124.866	124.625	99.81	7.664	7.168
8	1.923	1.928	124.069	124.400	100.27	7.618	7.150
9	1.927	1.923	124.318	124.091	99.82	7.639	7.128
10	1.922	1.920	124.004	123.840	99.87	7.624	7.110
11	1.919	1.916	123.789	123.593	99.84	7.613	7.095
12	1.917	1.916	123.678	123.600	99.94	7.604	7.101
13	1.915	1.914	123.567	123.475	99.93	7.592	7.093
14	1.912	1.908	123.349	123.125	99.82	7.581	7.067
15	1.908	1.906	123.099	122.999	99.92	7.571	7.055
16	1.905	1.903	122.887	122.797	99.93	7.562	7.042
17	1.903	1.902	122.752	122.722	99.98	7.553	7.037
18	1.902	1.901	122.705	122.650	99.95	7.549	7.036
19	1.901	1.899	122.617	122.525	99.93	7.542	7.028
20	1.897	1.896	122.417	122.349	99.94	7.532	7.014
21	1.895	1.894	122.275	122.223	99.96	7.527	7.005
22	1.893	1.892	122.158	122.049	99.91	7.521	6.992
23	1.890	1.888	121.926	121.794	99.89	7.511	6.971
24	1.888	1.888	121.793	121.811	100.02	7.507	6.978
25	1.888	1.887	121.807	121.721	99.93	7.503	6.969
26	1.886	1.885	121.700	121.588	99.91	7.496	6.961
27	1.883	1.882	121.453	121.414	99.97	7.486	6.947
28	1.881	1.880	121.324	121.288	99.97	7.482	6.936
29	1.876	1.875	121.003	120.988	99.99	7.464	6.916
30	1.875	1.875	120.939	120.967	100.02	7.461	6.919
31	1.879	1.878	121.197	121.190	99.99	7.470	6.934
32	1.877	1.876	121.091	121.044	99.96	7.467	6.923
33	1.874	1.873	120.901	120.863	99.97	7.458	6.906
34	1.871	1.871	120.739	120.713	99.98	7.453	6.894
35	1.867	1.867	120.453	120.439	99.99	7.436	6.875
36	1.870	1.871	120.634	120.715	100.07	7.448	6.901
37	1.871	1.871	120.723	120.704	99.98	7.445	6.901
38	1.869	1.870	120.610	120.613	100.00	7.439	6.894
39	1.868	1.868	120.515	120.539	100.02	7.433	6.887
40	1.863	1.863	120.219	120.189	99.97	7.419	6.861
41	1.861	1.861	120.092	120.089	100.00	7.414	6.853
42	1.860	1.862	120.013	120.114	100.08	7.411	6.861
43	1.865	1.865	120.323	120.339	100.01	7.422	6.877
44	1.861	1.861	120.055	120.064	100.01	7.406	6.858
45	1.860	1.860	120.009	120.014	100.00	7.403	6.854
46	1.861	1.861	120.092	120.089	100.00	7.412	6.856
47	1.857	1.857	119.812	119.814	100.00	7.396	6.837
48	1.856	1.857	119.725	119.789	100.05	7.393	6.838
49	1.857	1.857	119.785	119.814	100.02	7.391	6.842
50	1.858	1.858	119.877	119.864	99.99	7.398	6.843
51	1.849	1.853	119.302	119.564	100.22	7.366	6.820
52	1.855	1.855	119.662	119.664	100.00	7.392	6.825
53	1.850	1.851	119.372	119.389	100.01	7.375	6.806
54	1.850	1.851	119.341	119.414	100.06	7.374	6.812
55	1.854	1.854	119.607	119.642	100.03	7.383	6.830
56	1.853	1.853	119.555	119.541	99.99	7.379	6.821
57	1.849	1.849	119.285	119.266	99.98	7.364	6.801
58	1.846	1.847	119.099	119.140	100.03	7.357	6.790
59	1.845	1.845	119.033	119.040	100.01	7.356	6.783
60	1.844	1.845	118.949	119.040	100.08	7.353	6.788
61	1.849	1.849	119.277	119.320	100.04	7.366	6.811
62	1.849	1.849	119.299	119.315	100.01	7.362	6.811
63	1.845	1.845	119.035	119.040	100.00	7.347	6.791
64	1.844	1.844	118.955	118.965	100.01	7.344	6.785
65	1.845	1.846	119.063	119.090	100.02	7.353	6.794
66	1.842	1.842	118.824	118.865	100.03	7.338	6.779
67	1.845	1.847	119.056	119.135	100.07	7.349	6.802
68	1.846	1.846	119.083	119.079	100.00	7.347	6.798
69	1.844	1.846	118.998	119.087	100.07	7.345	6.799
70	1.845	1.844	119.030	118.994	99.97	7.342	6.791
71	1.840	1.842	118.705	118.820	100.10	7.329	6.776
72	1.837	1.837	118.500	118.517	100.01	7.320	6.756
73	1.839	1.840	118.660	118.696	100.03	7.330	6.769
74	1.840	1.840	118.706	118.722	100.01	7.328	6.771
75	1.838	1.838	118.585	118.592	100.01	7.325	6.760
76	1.837	1.837	118.509	118.505	100.00	7.322	6.753
77	1.835	1.835	118.411	118.417	100.00	7.319	6.746
78	1.831	1.832	118.142	118.167	100.02	7.303	6.730
79	1.832	1.834	118.182	118.354	100.15	7.304	6.751
80	1.839	1.840	118.668	118.700	100.03	7.319	6.780
81	1.839	1.839	118.622	118.625	100.00	7.314	6.772
82	1.837	1.838	118.542	118.550	100.01	7.311	6.767
83	1.836	1.836	118.470	118.475	100.00	7.308	6.762
84	1.836	1.836	118.422	118.449	100.02	7.306	6.760
85	1.835	1.836	118.408	118.450	100.04	7.305	6.762
86	1.836	1.836	118.441	118.450	100.01	7.302	6.766
87	1.835	1.834	118.360	118.350	99.99	7.297	6.757
88	1.833	1.834	118.280	118.300	100.02	7.295	6.754
89	1.832	1.833	118.223	118.250	100.02	7.291	6.751
90	1.832	1.832	118.193	118.200	100.01	7.289	6.747
91	1.831	1.832	118.154	118.174	100.02	7.288	6.746
92	1.830	1.831	118.089	118.099	100.01	7.284	6.740
93	1.829	1.830	118.022	118.050	100.02	7.280	6.737
94	1.828	1.829	117.947	117.975	100.02	7.276	6.731
95	1.828	1.828	117.913	117.925	100.01	7.276	6.729
96	1.827	1.827	117.860	117.850	99.99	7.273	6.723
97	1.826	1.827	117.811	117.850	100.03	7.271	6.724
98	1.826	1.826	117.798	117.800	100.00	7.269	6.723
99	1.825	1.825	117.741	117.750	100.01	7.263	6.717
100	1.823	1.824	117.637	117.650	100.01	7.260	6.710
101	1.822	1.822	117.541	117.575	100.03	7.256	6.702
102	1.821	1.821	117.478	117.471	99.99	7.254	6.695
103	1.819	1.820	117.374	117.449	100.06	7.250	6.694
104	1.820	1.821	117.440	117.475	100.03	7.250	6.702
105	1.820	1.820	117.436	117.450	100.01	7.245	6.700
106	1.819	1.819	117.370	117.375	100.00	7.243	6.693
107	1.818	1.818	117.279	117.275	100.00	7.240	6.686
108	1.817	1.817	117.218	117.225	100.01	7.237	6.682
109	1.816	1.817	117.131	117.200	100.06	7.233	6.682
110	1.817	1.818	117.216	117.275	100.05	7.234	6.693
111	1.817	1.817	117.250	117.250	100.00	7.231	6.694
112	1.816	1.816	117.181	117.175	99.99	7.227	6.685
113	1.816	1.814	117.138	117.050	99.92	7.225	6.681
114	1.814	1.815	117.064	117.100	100.03	7.221	6.682
115	1.814	1.814	117.009	117.025	100.01	7.219	6.678
116	1.814	1.814	117.024	117.025	100.00	7.218	6.682
117	1.814	1.814	117.014	117.050	100.03	7.216	6.686
118	1.813	1.811	116.962	116.825	99.88	7.212	6.666
119	1.811	1.811	116.807	116.825	100.02	7.209	6.664
120	1.810	1.811	116.798	116.825	100.02	7.207	6.667
121	1.810	1.810	116.753	116.775	100.02	7.203	6.664
122	1.810	1.810	116.747	116.775	100.02	7.202	6.666
123	1.809	1.808	116.739	116.675	99.94	7.200	6.659
124	1.807	1.807	116.590	116.600	100.01	7.196	6.650
125	1.806	1.807	116.541	116.575	100.03	7.192	6.648
126	1.805	1.804	116.474	116.400	99.94	7.189	6.635
127	1.804	1.804	116.386	116.400	100.01	7.186	6.636
128	1.804	1.805	116.383	116.425	100.04	7.186	6.642
129	1.804	1.805	116.400	116.425	100.02	7.182	6.643
130	1.802	1.802	116.287	116.275	99.99	7.177	6.627
131	1.802	1.801	116.228	116.225	100.00	7.175	6.623
132	1.800	1.801	116.156	116.200	100.04	7.173	6.623
133	1.800	1.800	116.136	116.125	99.99	7.171	6.617
134	1.799	1.800	116.047	116.125	100.07	7.167	6.621
135	1.799	1.799	116.071	116.050	99.98	7.165	6.612
136	1.798	1.798	115.969	116.000	100.03	7.162	6.609
137	1.797	1.797	115.941	115.950	100.01	7.159	6.606
138	1.795	1.796	115.827	115.875	100.04	7.156	6.601
139	1.795	1.795	115.806	115.825	100.02	7.153	6.599
140	1.795	1.795	115.779	115.800	100.02	7.151	6.598
141	1.794	1.794	115.727	115.725	100.00	7.148	6.594
142	1.793	1.793	115.647	115.650	100.00	7.144	6.587
143	1.792	1.792	115.603	115.625	100.02	7.142	6.586
144	1.791	1.791	115.531	115.550	100.02	7.137	6.581
145	1.790	1.790	115.487	115.500	100.01	7.135	6.578
146	1.789	1.789	115.430	115.425	100.00	7.132	6.574
147	1.789	1.790	115.425	115.475	100.04	7.130	6.582
148	1.789	1.789	115.427	115.425	100.00	7.128	6.580
149	1.788	1.788	115.344	115.325	99.98	7.124	6.570
150	1.787	1.787	115.261	115.275	100.01	7.120	6.568